CO_{2}	CO_{2}	CO_{2} - BH3	CO_{2} - BH3	CO_{2} - BH3						BH_{3}	BH_{3}	BH_{3} - BH3	BH_{3} - BH3	BH_{3} - BH3	BH_{3} - Add-CO2	BH_{3} - Add-CO2	BH_{3} - Add-CO2			AlH_{3}	AlH_{3}	AlH_{3} - BH3	AlH_{3} - BH3	AlH_{3} - BH3	AlH_{3} - Add-CO2	AlH_{3} - Add-CO2	AlH_{3} - Add-CO2			NMe_{3}	NMe_{3}	NMe_{3} - BH3	NMe_{3} - BH3	NMe_{3} - BH3	NMe_{3} - Add-CO2	NMe_{3} - Add-CO2	NMe_{3} - Add-CO2	NMe_{3} - Add-CO2		PMe_{3}	PMe_{3}	PMe_{3} - BH3	PMe_{3} - BH3	PMe_{3} - BH3	PMe_{3} - Add-CO2	PMe_{3} - Add-CO2	PMe_{3} - Add-CO2	PMe_{3} - Add-CO2		NCB	NCB	NCB - BH3	NCB - BH3	NCB - BH3	NCB - Add-CO2	NCB - Add-CO2	NCB - Add-CO2			NCAl	NCAl	NCAl - BH3	NCAl - BH3	NCAl - BH3	NCAl - Add-CO2	NCAl - Add-CO2	NCAl - Add-CO2			PCB	PCB	PCB - BH3	PCB - BH3	PCB - BH3	PCB - Add-CO2	PCB - Add-CO2	PCB - Add-CO2			PCAl	PCAl	PCAl - BH3	PCAl - BH3	PCAl - BH3	PCAl - Add-CO2	PCAl - Add-CO2	PCAl - Add-CO2
BH distance	OCO angle	Strain	Interaction	Total Energy						BH distance	OCO angle	Strain	Interaction	Total Energy	Strain	Interaction	Total Energy			BH distance	OCO angle	Strain	Interaction	Total Energy	Strain	Interaction	Total Energy			BH distance	OCO angle	Strain	Interaction	Total Energy	Strain	Interaction	Total Energy	Frag NMe3		BH distance	OCO angle	Strain	Interaction	Total Energy	Strain	Interaction	Total Energy	Frag PMe3		BH distance	OCO angle	Strain	Interaction	Total Energy	Strain	Interaction	Total Energy			BH distance	OCO angle	Strain	Interaction	Total Energy	Strain	Interaction	Total Energy			BH distance	OCO angle	Strain	Interaction	Total Energy	Strain	Interaction	Total Energy			BH distance	OCO angle	Strain	Interaction	Total Energy	Strain	Interaction	Total Energy
1.196	179.662	0.160	-2.314	-2.15						1.196	179.176	0.201	-1.915	-1.714						1.196	178.532	0.105	-1.074	-0.969						2.453	122.104	198.854	-221.144	-22.290						2.317	119.400	195.382	-200.174	-4.792						1.217	130	16.417	-36.497	-20.080						1.228	128.99	17.133	-37.219	-20.086						1.213	127.319	16.419	-37.856	-21.437						1.216	126.572	15.999	-35.060	-19.061			
1.196	179.662	0.160	-2.314	-2.15						1.196	179.182	0.212	-1.910	-1.698						1.196	178.539	0.117	-1.066	-0.949						2.456	122.063	199.574	-221.825	-22.251						2.315	119.465	194.896	-199.694	-4.799						1.217	130.007	16.414	-36.481	-20.066						1.228	128.986	17.162	-37.226	-20.063						1.215	127.322	16.441	-37.878	-21.437						1.214	126.583	15.956	-34.899	-18.942			
1.197	179.678	0.165	-2.305	-2.14						1.196	179.193	0.226	-1.904	-1.678						1.196	178.536	0.128	-1.051	-0.923						2.448	122.211	197.891	-219.580	-21.689						2.296	119.462	193.594	-197.327	-3.733						1.217	130.014	16.409	-36.455	-20.046						1.228	128.984	17.170	-37.208	-20.038						1.213	127.305	16.363	-37.719	-21.356						1.217	126.600	15.955	-34.777	-18.822			
1.197	179.694	0.174	-2.296	-2.12						1.196	179.193	0.237	-1.891	-1.654						1.196	178.523	0.137	-1.026	-0.889						2.442	122.317	196.969	-217.986	-21.017						2.271	119.533	191.334	-193.905	-2.571						1.217	130.021	16.406	-36.423	-20.017						1.228	128.983	17.186	-37.194	-20.009						1.214	127.294	16.325	-37.591	-21.266						1.215	126.613	15.932	-34.641	-18.709			
1.197	179.71	0.192	-2.293	-2.10						1.196	179.187	0.251	-1.875	-1.624						1.196	178.514	0.147	-0.992	-0.844						2.435	122.46	195.588	-215.860	-20.272						2.248	119.519	189.291	-190.631	-1.339						1.217	130.029	16.405	-36.387	-19.982						1.228	128.983	17.199	-37.175	-19.977						1.214	127.280	16.256	-37.424	-21.168						1.217	126.631	15.914	-34.509	-18.595			
1.197	179.724	0.215	-2.289	-2.07						1.196	179.158	0.261	-1.850	-1.590						1.196	178.496	0.156	-0.948	-0.792						2.427	122.604	194.231	-213.694	-19.463						2.228	119.446	187.247	-187.316	-0.069						1.217	130.039	16.405	-36.344	-19.939						1.228	128.983	17.213	-37.153	-19.941						1.214	127.270	16.201	-37.265	-21.064						1.216	126.646	15.891	-34.373	-18.482			
1.197	179.732	0.239	-2.278	-2.04						1.196	179.136	0.279	-1.829	-1.550						1.197	178.437	0.166	-0.893	-0.727						2.419	122.758	192.765	-211.367	-18.602						2.200	119.460	184.314	-183.082	1.232						1.217	130.048	16.402	-36.291	-19.889						1.228	128.985	17.224	-37.126	-19.902						1.215	127.260	16.131	-37.084	-20.953						1.216	126.663	15.874	-34.240	-18.366			
1.197	179.728	0.258	-2.252	-1.99						1.197	179.130	0.304	-1.805	-1.501						1.196	178.442	0.173	-0.821	-0.648						2.41	122.918	191.252	-208.952	-17.700						2.176	119.388	181.785	-179.256	2.529						1.218	130.058	16.394	-36.225	-19.831						1.228	128.987	17.235	-37.094	-19.859						1.215	127.248	16.076	-36.914	-20.839						1.216	126.680	15.856	-34.106	-18.250			
1.197	179.725	0.294	-2.236	-1.94						1.197	179.117	0.331	-1.769	-1.437						1.196	178.551	0.164	-0.715	-0.551						2.4	123.084	189.685	-206.452	-16.767						2.147	119.341	178.790	-174.988	3.802						1.218	130.067	16.379	-36.146	-19.767						1.228	128.991	17.244	-37.057	-19.813						1.215	127.238	16.020	-36.738	-20.718						1.216	126.699	15.850	-33.984	-18.134			
1.197	179.728	0.342	-2.218	-1.88						1.197	179.097	0.364	-1.722	-1.358						1.198	178.192	0.250	-0.690	-0.440						2.39	123.253	188.090	-203.902	-15.812						2.118	119.340	175.478	-170.439	5.039						1.218	130.076	16.358	-36.054	-19.696						1.228	128.996	17.253	-37.015	-19.763						1.215	127.230	15.974	-36.566	-20.592						1.216	126.719	15.854	-33.872	-18.018			
1.198	179.735	0.410	-2.208	-1.80						1.197	179.065	0.405	-1.672	-1.267						1.196	178.430	0.201	-0.512	-0.311						2.379	123.426	186.463	-201.311	-14.848						2.093	119.184	173.035	-166.847	6.188						1.218	130.086	16.331	-35.949	-19.618						1.228	129.001	17.260	-36.969	-19.709						1.215	127.223	15.925	-36.386	-20.461						1.217	126.740	15.850	-33.753	-17.903			
1.198	179.71	0.457	-2.166	-1.71						1.197	178.997	0.454	-1.614	-1.160						1.198	178.151	0.271	-0.430	-0.158						2.367	123.601	184.808	-198.695	-13.886						2.058	119.303	168.546	-161.312	7.234						1.218	130.097	16.298	-35.831	-19.532						1.228	129.008	17.266	-36.917	-19.651						1.215	127.218	15.888	-36.216	-20.328						1.217	126.760	15.832	-33.621	-17.789			
1.198	179.693	0.530	-2.134	-1.60						1.197	179.034	0.504	-1.540	-1.036						1.198	178.104	0.316	-0.296	0.020						2.354	123.779	183.129	-196.065	-12.936						2.027	119.249	165.365	-157.190	8.175						1.218	130.111	16.261	-35.701	-19.440						1.228	129.017	17.269	-36.858	-19.589						1.216	127.215	15.851	-36.042	-20.192						1.217	126.781	15.831	-33.507	-17.676			
1.198	179.686	0.630	-2.106	-1.48						1.196	179.136	0.522	-1.413	-0.891						1.197	178.139	0.307	-0.081	0.226						2.34	123.961	181.436	-193.442	-12.007						1.990	119.319	161.125	-152.118	9.007						1.218	130.125	16.221	-35.561	-19.340						1.228	129.027	17.267	-36.790	-19.523						1.216	127.212	15.802	-35.853	-20.052						1.217	126.804	15.838	-33.402	-17.564			
1.198	179.663	0.734	-2.062	-1.33						1.199	178.807	0.681	-1.417	-0.736						1.198	177.945	0.408	0.049	0.458						2.324	124.145	179.730	-190.837	-11.107						1.950	119.479	156.248	-146.526	9.721						1.218	130.139	16.178	-35.411	-19.233						1.228	129.038	17.258	-36.712	-19.453						1.216	127.211	15.746	-35.655	-19.909						1.217	126.827	15.842	-33.294	-17.452			
1.201	179.501	0.907	-2.067	-1.16						1.197	178.890	0.724	-1.275	-0.551						1.197	177.917	0.425	0.296	0.721						2.307	124.335	177.993	-188.238	-10.244						1.910	119.581	151.936	-141.621	10.314						1.218	130.155	16.133	-35.253	-19.120						1.228	129.052	17.243	-36.623	-19.379						1.216	127.211	15.711	-35.475	-19.764						1.218	126.850	15.835	-33.178	-17.342			
1.196	179.742	0.970	-1.942	-0.97						1.199	178.770	0.861	-1.203	-0.341						1.199	177.644	0.561	0.453	1.013						2.288	124.531	176.208	-185.630	-9.422						1.865	119.868	146.186	-135.384	10.802						1.218	130.171	16.088	-35.088	-19.000						1.228	129.069	17.220	-36.522	-19.301						1.216	127.212	15.671	-35.287	-19.616						1.218	126.874	15.838	-33.071	-17.233			
1.2	179.454	1.178	-1.937	-0.76						1.199	178.691	0.974	-1.084	-0.109						1.198	177.468	0.626	0.721	1.347						2.267	124.737	174.366	-183.001	-8.635						1.817	120.195	140.269	-129.076	11.193						1.218	130.19	16.025	-34.899	-18.874						1.227	129.087	17.189	-36.407	-19.218						1.216	127.214	15.617	-35.084	-19.466						1.218	126.898	15.857	-32.981	-17.124			
1.199	179.511	1.345	-1.866	-0.52						1.199	178.577	1.117	-0.959	0.158						1.199	177.216	0.773	0.951	1.724						2.244	124.954	172.453	-180.333	-7.880						1.767	120.614	133.719	-122.220	11.498						1.219	130.21	15.967	-34.710	-18.742						1.227	129.107	17.147	-36.278	-19.131						1.217	127.219	15.587	-34.903	-19.316						1.218	126.923	15.873	-32.888	-17.015			
1.201	179.383	1.582	-1.833	-0.25						1.199	178.486	1.282	-0.824	0.457						1.199	176.899	0.927	1.210	2.137						2.22	125.186	170.447	-177.596	-7.149						1.715	121.114	126.576	-114.853	11.724						1.219	130.233	15.884	-34.490	-18.605						1.227	129.13	17.095	-36.133	-19.038						1.217	127.226	15.555	-34.718	-19.163						1.218	126.948	15.876	-32.783	-16.907			
1.201	179.295	1.822	-1.775	0.05						1.200	178.336	1.491	-0.710	0.781						1.200	176.443	1.133	1.458	2.591						2.194	125.435	168.322	-174.759	-6.437						1.659	121.750	118.503	-106.641	11.862						1.219	130.257	15.812	-34.275	-18.463						1.227	129.155	17.032	-35.973	-18.941						1.217	127.234	15.515	-34.524	-19.009						1.218	126.974	15.883	-32.682	-16.800			
1.201	179.138	2.106	-1.733	0.37						1.200	178.128	1.716	-0.580	1.136						1.200	175.868	1.368	1.723	3.092						2.166	125.705	166.061	-171.794	-5.734						1.602	122.488	109.818	-97.909	11.909						1.219	130.281	15.730	-34.046	-18.316						1.226	129.181	16.959	-35.798	-18.839						1.217	127.244	15.470	-34.322	-18.852						1.219	126.999	15.887	-32.580	-16.694			
1.202	178.92	2.439	-1.704	0.73						1.201	177.856	1.980	-0.449	1.531						1.201	175.159	1.692	1.947	3.639						2.137	125.998	163.642	-168.676	-5.034						1.546	123.219	101.357	-89.497	11.860						1.219	130.306	15.647	-33.810	-18.163						1.226	129.21	16.875	-35.608	-18.733						1.217	127.257	15.425	-34.121	-18.696						1.219	127.026	15.886	-32.473	-16.587			
1.203	178.594	2.808	-1.674	1.13						1.201	177.503	2.291	-0.329	1.962						1.203	174.255	2.111	2.117	4.228						2.107	126.315	161.051	-165.385	-4.334						1.490	124.050	92.583	-80.862	11.721						1.219	130.332	15.559	-33.564	-18.005						1.225	129.24	16.783	-35.404	-18.621						1.217	127.269	15.391	-33.929	-18.539						1.219	127.047	15.889	-32.369	-16.481			
1.203	178.161	3.242	-1.667	1.57						1.202	177.023	2.667	-0.237	2.430						1.204	173.143	2.633	2.226	4.859						2.076	126.665	158.231	-161.863	-3.632						1.439	124.980	83.888	-72.389	11.499						1.219	130.361	15.470	-33.313	-17.843						1.225	129.272	16.678	-35.184	-18.506						1.218	127.281	15.396	-33.775	-18.380						1.219	127.081	15.889	-32.261	-16.372			
1.204	177.557	3.745	-1.681	2.06						1.203	176.389	3.103	-0.165	2.938						1.206	171.865	3.295	2.234	5.529						2.044	127.018	155.236	-158.160	-2.924						1.394	125.979	75.542	-64.381	11.161						1.219	130.39	15.378	-33.056	-17.678						1.224	129.305	16.576	-34.961	-18.385						1.217	127.296	15.291	-33.513	-18.222						1.220	127.101	15.900	-32.166	-16.266			
1.206	176.757	4.313	-1.720	2.59						1.204	175.584	3.625	-0.134	3.490						1.208	170.436	4.135	2.094	6.229						2.013	127.454	152.093	-154.314	-2.221						1.355	126.994	68.154	-57.530	10.623						1.219	130.421	15.282	-32.790	-17.508						1.224	129.338	16.466	-34.728	-18.261						1.218	127.309	15.286	-33.348	-18.062						1.220	127.129	15.898	-32.057	-16.159			
1.207	175.762	4.987	-1.814	3.17						1.205	174.597	4.248	-0.160	4.088						1.211	168.870	5.156	1.782	6.938						1.978	127.88	148.541	-150.061	-1.520						1.323	127.957	62.161	-52.351	9.811						1.219	130.454	15.180	-32.515	-17.336						1.223	129.371	16.355	-34.488	-18.133						1.218	127.331	15.230	-33.129	-17.899						1.220	127.156	15.891	-31.942	-16.051			
1.208	174.575	5.781	-1.970	3.81						1.207	173.430	4.994	-0.265	4.729						1.215	167.182	6.413	1.223	7.636						1.947	128.296	145.110	-145.934	-0.824						1.301	128.866	57.369	-48.631	8.738						1.219	130.488	15.074	-32.233	-17.159						1.223	129.404	16.243	-34.244	-18.002						1.218	127.345	15.232	-32.971	-17.739						1.220	127.183	15.887	-31.828	-15.942			
1.21	173.216	6.722	-2.216	4.51						1.209	172.098	5.887	-0.476	5.410						1.219	165.400	7.869	0.423	8.292						1.909	128.874	140.729	-140.879	-0.150						1.285	129.716	53.257	-45.776	7.482						1.219	130.523	14.963	-31.941	-16.978						1.222	129.438	16.133	-34.000	-17.867						1.218	127.364	15.178	-32.754	-17.576						1.220	127.212	15.875	-31.707	-15.832			
1.213	171.703	7.828	-2.580	5.25						1.212	170.619	6.949	-0.828	6.122						1.225	163.565	9.618	-0.747	8.870						1.876	129.304	136.949	-136.443	0.506						1.273	130.482	49.657	-43.539	6.118						1.218	130.559	14.846	-31.641	-16.795						1.221	129.471	16.026	-33.756	-17.730						1.219	127.382	15.152	-32.565	-17.413						1.221	127.240	15.860	-31.581	-15.721			
1.216	170.065	9.109	-3.080	6.03						1.215	169.015	8.189	-1.340	6.849						1.231	161.696	11.602	-2.271	9.332						1.839	129.963	132.216	-131.080	1.136						1.262	131.190	46.398	-41.675	4.723						1.218	130.597	14.723	-31.332	-16.609						1.221	129.505	15.926	-33.517	-17.591						1.219	127.402	15.106	-32.355	-17.249						1.221	127.269	15.836	-31.445	-15.609			
1.219	168.333	10.591	-3.761	6.83						1.219	167.315	9.641	-2.070	7.571						1.239	159.815	13.892	-4.254	9.637						1.804	130.466	127.852	-126.113	1.739						1.256	131.785	43.645	-40.282	3.363						1.218	130.637	14.601	-31.022	-16.422						1.22	129.538	15.831	-33.282	-17.450						1.219	127.422	15.067	-32.153	-17.085						1.221	127.297	15.807	-31.303	-15.495			
1.224	166.532	12.285	-4.656	7.63						1.223	165.547	11.294	-3.031	8.264						1.249	157.915	16.531	-6.786	9.745						1.767	131.191	122.749	-120.444	2.304						1.248	132.331	41.174	-39.076	2.097						1.218	130.68	14.477	-30.709	-16.232						1.22	129.572	15.742	-33.050	-17.308						1.219	127.444	15.029	-31.951	-16.922						1.221	127.326	15.777	-31.157	-15.380			
1.228	164.682	14.193	-5.792	8.40						1.229	163.735	13.196	-4.301	8.895						1.258	156.026	19.449	-9.820	9.630						1.731	131.75	117.946	-115.109	2.837						1.249	132.712	39.224	-38.260	0.964						1.218	130.724	14.349	-30.389	-16.040						1.219	129.605	15.658	-32.823	-17.165						1.219	127.466	14.997	-31.756	-16.759						1.221	127.355	15.745	-31.007	-15.262			
1.234	162.801	16.342	-7.226	9.12						1.235	161.896	15.327	-5.891	9.436						1.269	154.133	22.691	-13.422	9.270						1.697	132.722	112.464	-109.117	3.347						1.241	133.067	37.455	-37.492	-0.037						1.218	130.769	14.218	-30.063	-15.846						1.218	129.64	15.577	-32.598	-17.021						1.220	127.490	14.960	-31.555	-16.594						1.222	127.383	15.703	-30.847	-15.143			
1.241	160.903	18.737	-8.990	9.75						1.242	160.043	17.726	-7.871	9.854						1.282	152.281	26.323	-17.663	8.659						1.658	133.018	107.634	-103.834	3.800						1.240	133.324	36.120	-37.018	-0.899						1.218	130.815	14.084	-29.733	-15.650						1.218	129.674	15.499	-32.375	-16.876						1.220	127.514	14.920	-31.350	-16.430						1.222	127.411	15.650	-30.673	-15.023			
1.248	159.003	21.395	-11.125	10.27						1.251	158.182	20.405	-10.284	10.120						1.296	150.461	30.390	-22.578	7.812						1.626	134.196	102.350	-98.174	4.177						1.240	133.475	35.126	-36.776	-1.649						1.218	130.863	13.949	-29.401	-15.453						1.218	129.709	15.422	-32.152	-16.730						1.220	127.539	14.876	-31.140	-16.264						1.222	127.439	15.593	-30.493	-14.900			
1.257	157.113	24.298	-13.636	10.66						1.261	156.315	23.385	-13.172	10.213						1.312	148.688	34.873	-28.112	6.761						1.584	134.752	96.888	-92.355	4.533						1.238	133.588	34.230	-36.560	-2.330						1.218	130.911	13.811	-29.066	-15.255						1.217	129.745	15.346	-31.929	-16.583						1.220	127.564	14.827	-30.926	-16.099						1.222	127.467	15.537	-30.313	-14.776			
1.268	155.244	27.534	-16.629	10.90						1.272	154.461	26.651	-16.534	10.117						1.330	146.958	39.832	-34.273	5.559						1.553	135.765	91.678	-86.825	4.853						1.235	133.685	33.654	-36.578	-2.924						1.218	130.961	13.671	-28.728	-15.057						1.217	129.782	15.269	-31.704	-16.435						1.220	127.591	14.779	-30.712	-15.933						1.223	127.495	15.483	-30.132	-14.649			
1.281	153.388	31.132	-20.145	10.99						1.284	152.610	30.269	-20.441	9.828						1.348	145.296	45.296	-41.021	4.275						1.518	136.683	86.273	-81.127	5.146						1.241	133.627	33.071	-36.509	-3.438						1.218	131.012	13.529	-28.388	-14.859						1.216	129.819	15.192	-31.479	-16.286						1.221	127.617	14.733	-30.500	-15.767						1.223	127.524	15.429	-29.949	-14.520			
1.294	151.545	35.041	-24.137	10.90						1.298	150.797	34.287	-24.935	9.352						1.369	143.728	51.245	-48.270	2.975						1.486	137.732	80.995	-75.571	5.423						1.233	133.662	32.914	-36.881	-3.967						1.217	131.065	13.385	-28.045	-14.660						1.216	129.857	15.115	-31.252	-16.136						1.221	127.645	14.688	-30.288	-15.600						1.223	127.554	15.374	-29.763	-14.389			
1.309	149.723	39.365	-28.697	10.67						1.314	149.017	38.759	-30.049	8.710						1.391	142.284	57.514	-55.788	1.726						1.455	138.878	75.465	-69.769	5.697						1.235	133.629	32.426	-36.866	-4.440						1.217	131.121	13.233	-27.695	-14.462						1.216	129.897	15.038	-31.023	-15.985						1.221	127.674	14.643	-30.076	-15.433						1.223	127.584	15.315	-29.572	-14.256			
1.327	147.934	44.220	-33.916	10.30						1.333	147.281	43.744	-35.802	7.942						1.414	140.947	63.849	-63.266	0.582						1.426	140.195	69.615	-63.635	5.980						1.235	133.588	32.221	-37.080	-4.859						1.217	131.176	13.093	-27.356	-14.263						1.215	129.937	14.960	-30.792	-15.833						1.221	127.703	14.597	-29.863	-15.266						1.223	127.614	15.250	-29.371	-14.122			
1.348	146.173	49.668	-39.814	9.85						1.353	145.595	49.293	-42.191	7.102						1.437	139.701	70.121	-70.554	-0.432						1.4	141.683	63.498	-57.202	6.295						1.234	133.541	32.031	-37.272	-5.241						1.217	131.233	12.937	-27.003	-14.065						1.215	129.978	14.880	-30.559	-15.679						1.222	127.733	14.550	-29.648	-15.098						1.224	127.645	15.176	-29.162	-13.986			
1.371	144.447	55.728	-46.358	9.37						1.375	143.960	55.397	-49.136	6.262						1.462	138.505	76.209	-77.535	-1.326						1.375	143.291	57.258	-50.600	6.657						1.234	133.488	31.880	-37.468	-5.588						1.217	131.291	12.785	-26.653	-13.868						1.215	130.02	14.800	-30.323	-15.523						1.222	127.764	14.500	-29.430	-14.930						1.224	127.676	15.096	-28.944	-13.848			
1.396	142.763	62.238	-53.328	8.91						1.399	142.400	61.857	-56.372	5.485						1.490	137.382	82.056	-84.186	-2.130						1.351	144.918	51.359	-44.310	7.049						1.234	133.429	31.755	-37.659	-5.904						1.217	131.349	12.629	-26.301	-13.672						1.215	130.064	14.717	-30.082	-15.365						1.222	127.796	14.448	-29.209	-14.762						1.224	127.710	15.008	-28.717	-13.710			
1.423	141.143	68.822	-60.323	8.50						1.423	140.948	68.355	-63.552	4.804						1.520	136.326	87.482	-90.362	-2.880						1.33	146.575	46.023	-38.595	7.428						1.233	133.364	31.663	-37.856	-6.193						1.217	131.408	12.473	-25.950	-13.477						1.214	130.109	14.631	-29.837	-15.206						1.222	127.830	14.388	-28.981	-14.593						1.224	127.744	14.938	-28.508	-13.570			
1.451	139.697	75.213	-67.082	8.13						1.448	139.601	74.607	-70.396	4.211						1.554	135.347	92.628	-96.239	-3.611						1.312	148.25	41.287	-33.544	7.742						1.232	133.292	31.607	-38.066	-6.459						1.217	131.468	12.316	-25.599	-13.283						1.214	130.155	14.541	-29.586	-15.045						1.222	127.864	14.340	-28.765	-14.425						1.225	127.776	14.848	-28.277	-13.429			
1.488	138.492	81.636	-73.863	7.77						1.475	138.363	80.245	-76.579	3.666						1.590	134.635	97.584	-101.911	-4.326						1.296	149.952	37.085	-29.136	7.949						1.232	133.215	31.581	-38.289	-6.708						1.216	131.529	12.159	-25.250	-13.091						1.214	130.204	14.444	-29.326	-14.882						1.223	127.897	14.280	-28.537	-14.257						1.225	127.809	14.766	-28.053	-13.287			
1.517	137.271	87.139	-79.724	7.41						1.506	137.358	85.592	-82.452	3.140						1.623	133.507	102.477	-107.463	-4.986						1.283	151.654	33.304	-25.283	8.021						1.231	133.134	31.594	-38.537	-6.943						1.216	131.59	12.002	-24.902	-12.900						1.214	130.258	14.342	-29.059	-14.717						1.223	127.931	14.218	-28.307	-14.089						1.225	127.843	14.679	-27.822	-13.143			
1.56	136.409	93.305	-86.279	7.03						1.536	136.456	90.627	-88.002	2.626						1.661	133.304	106.569	-112.259	-5.690						1.27	153.362	29.823	-21.878	7.945						1.231	133.046	31.635	-38.802	-7.168						1.216	131.651	11.845	-24.556	-12.711						1.214	130.298	14.310	-28.861	-14.550						1.223	127.966	14.154	-28.076	-13.922						1.225	127.877	14.593	-27.591	-12.999			
1.591	135.348	98.580	-91.971	6.61						1.567	135.588	95.308	-93.207	2.101						1.695	132.300	111.861	-118.320	-6.460						1.259	155.068	26.715	-18.992	7.723						1.231	132.955	31.697	-39.083	-7.386						1.216	131.713	11.690	-24.213	-12.523						1.214	130.357	14.123	-28.509	-14.386						1.223	128.001	14.090	-27.845	-13.756						1.225	127.913	14.503	-27.356	-12.853			
1.63	134.512	104.325	-98.179	6.15						1.601	134.931	100.180	-98.609	1.571						1.732	131.709	116.458	-123.643	-7.185						1.25	156.78	23.904	-16.542	7.362						1.231	132.858	31.778	-39.378	-7.599						1.216	131.774	11.536	-23.873	-12.338						1.214	130.405	14.051	-28.271	-14.220						1.223	128.038	14.025	-27.614	-13.590						1.225	127.949	14.412	-27.119	-12.707			
1.669	133.746	109.985	-104.341	5.64						1.631	134.085	104.671	-103.646	1.024						1.763	131.109	120.486	-128.392	-7.906						1.243	158.49	21.336	-14.458	6.878						1.230	132.763	31.874	-39.684	-7.810						1.216	131.836	11.383	-23.537	-12.154						1.214	130.46	13.916	-27.969	-14.052						1.224	128.075	13.960	-27.384	-13.424						1.226	127.985	14.319	-26.879	-12.560			
1.704	132.875	115.289	-110.194	5.10						1.666	133.548	109.318	-108.863	0.455						1.808	130.637	125.228	-133.858	-8.629						1.236	160.193	18.984	-12.692	6.292						1.231	132.652	31.982	-40.000	-8.018						1.216	131.898	11.232	-23.204	-11.972						1.214	130.512	13.806	-27.691	-13.884						1.224	128.112	13.896	-27.154	-13.258						1.226	128.023	14.224	-26.638	-12.414			
1.746	132.316	120.780	-116.278	4.50						1.699	132.690	114.058	-114.170	-0.112						1.829	129.922	128.437	-137.778	-9.342						1.23	161.871	16.874	-11.249	5.625						1.230	132.557	32.126	-40.353	-8.227						1.216	131.959	11.083	-22.875	-11.792						1.214	130.568	13.679	-27.395	-13.716						1.224	128.151	13.831	-26.925	-13.094						1.226	128.061	14.128	-26.395	-12.267			
1.779	131.376	125.717	-121.840	3.88						1.728	132.454	117.605	-118.290	-0.686						1.878	129.772	132.384	-142.472	-10.088						1.225	163.509	14.965	-10.063	4.902						1.230	132.454	32.210	-40.643	-8.433						1.216	132.019	10.936	-22.551	-11.615						1.214	130.624	13.556	-27.103	-13.547						1.224	128.190	13.766	-26.695	-12.929						1.226	128.099	14.032	-26.153	-12.121			
1.819	130.945	130.691	-127.493	3.20						1.765	131.641	122.489	-123.830	-1.340						1.905	129.092	136.258	-147.103	-10.844						1.221	165.09	13.260	-9.110	4.150						1.229	132.366	32.443	-41.080	-8.637						1.216	132.08	10.793	-22.233	-11.440						1.214	130.681	13.426	-26.804	-13.378						1.224	128.229	13.699	-26.464	-12.765						1.226	128.138	13.935	-25.911	-11.976			
1.854	130.197	135.436	-132.943	2.49						1.796	131.207	126.528	-128.519	-1.991						1.940	128.747	139.582	-151.169	-11.587						1.217	166.588	11.743	-8.349	3.393						1.230	132.262	32.482	-41.325	-8.842						1.216	132.139	10.654	-21.920	-11.266						1.214	130.74	13.295	-26.503	-13.208						1.224	128.270	13.630	-26.232	-12.602						1.226	128.177	13.839	-25.670	-11.831			
1.893	129.807	139.749	-137.985	1.76						1.825	130.707	130.206	-132.848	-2.642						1.974	128.354	142.766	-155.088	-12.322						1.214	167.981	10.403	-7.750	2.653						1.229	132.171	32.638	-41.684	-9.047						1.215	132.198	10.519	-21.614	-11.095						1.214	130.799	13.159	-26.198	-13.039						1.225	128.311	13.559	-26.000	-12.440						1.226	128.217	13.744	-25.430	-11.687			
1.927	129.04	144.167	-143.148	1.02						1.862	130.343	134.152	-137.455	-3.303						2.006	127.999	145.682	-158.730	-13.049						1.212	169.24	9.227	-7.280	1.947						1.230	132.084	32.740	-41.988	-9.247						1.215	132.255	10.390	-21.316	-10.926						1.214	130.859	13.021	-25.890	-12.870						1.225	128.353	13.488	-25.767	-12.279						1.226	128.258	13.648	-25.192	-11.543			
1.964	128.734	147.901	-147.654	0.25						1.888	129.818	137.415	-141.393	-3.978						2.038	127.669	148.403	-162.167	-13.765						1.21	170.34	8.203	-6.915	1.288						1.229	131.989	32.841	-42.292	-9.451						1.215	132.311	10.269	-21.026	-10.757						1.214	130.919	12.877	-25.578	-12.700						1.225	128.395	13.415	-25.534	-12.119						1.227	128.299	13.554	-24.955	-11.401			
1.998	128.141	151.760	-152.287	-0.53						1.921	129.450	140.743	-145.404	-4.661						2.069	127.361	150.935	-165.403	-14.468						1.208	171.267	7.319	-6.638	0.681						1.229	131.902	32.971	-42.623	-9.652						1.215	132.365	10.156	-20.746	-10.590						1.214	130.98	12.733	-25.264	-12.531						1.225	128.438	13.342	-25.301	-11.959						1.227	128.340	13.460	-24.720	-11.260			
2.032	127.888	154.823	-156.119	-1.30						1.951	129.092	143.827	-149.171	-5.344						2.100	127.073	153.300	-168.456	-15.156						1.206	172.019	6.551	-6.421	0.130						1.229	131.821	33.091	-42.941	-9.850						1.215	132.416	10.053	-20.478	-10.424						1.214	131.041	12.586	-24.947	-12.362						1.225	128.481	13.271	-25.071	-11.800						1.227	128.381	13.367	-24.487	-11.120			
2.066	127.339	158.257	-160.329	-2.07						1.981	128.751	146.699	-152.728	-6.029						2.129	126.804	155.511	-171.338	-15.827						1.205	172.606	5.881	-6.250	-0.369						1.229	131.743	33.213	-43.258	-10.046						1.215	132.464	9.963	-20.223	-10.259						1.214	131.102	12.440	-24.631	-12.192						1.225	128.524	13.201	-24.843	-11.641						1.227	128.423	13.277	-24.257	-10.980			
2.099	127.02	161.106	-163.943	-2.84						2.009	128.446	149.327	-156.039	-6.712						2.158	126.551	157.584	-174.064	-16.480						1.204	173.028	5.272	-6.095	-0.823						1.229	131.670	33.335	-43.573	-10.238						1.215	132.511	9.885	-19.980	-10.095						1.214	131.163	12.290	-24.312	-12.021						1.225	128.568	13.135	-24.618	-11.483						1.227	128.464	13.189	-24.030	-10.841			
2.132	126.674	163.874	-167.457	-3.58						2.037	128.166	151.764	-159.156	-7.392						2.185	126.313	159.532	-176.646	-17.114						1.203	173.368	4.744	-5.976	-1.233						1.229	131.600	33.455	-43.882	-10.427						1.215	132.544	9.833	-19.763	-9.930						1.214	131.224	12.142	-23.993	-11.851						1.225	128.611	13.073	-24.398	-11.325						1.227	128.505	13.105	-23.808	-10.703			
2.164	126.363	166.402	-170.714	-4.31						2.064	127.910	154.019	-162.085	-8.066						2.213	126.086	161.370	-179.099	-17.729						1.203	173.629	4.281	-5.880	-1.599						1.228	131.535	33.571	-44.182	-10.611						1.216	132.557	9.883	-19.641	-9.758						1.214	131.285	11.994	-23.675	-11.681						1.226	128.653	13.016	-24.183	-11.167						1.227	128.545	13.025	-23.590	-10.565			
2.196	126.078	168.761	-173.778	-5.02						2.090	127.672	156.113	-164.847	-8.734						2.239	125.871	163.108	-181.433	-18.325						1.202	173.837	3.871	-5.796	-1.925						1.228	131.475	33.683	-44.473	-10.790						1.215	132.62	9.752	-19.347	-9.596						1.215	131.345	11.847	-23.357	-11.510						1.226	128.695	12.967	-23.976	-11.009						1.227	128.584	12.958	-23.385	-10.427			
2.227	125.817	170.961	-176.661	-5.70						2.115	127.450	158.061	-167.455	-9.393						2.264	125.665	164.759	-183.661	-18.901						1.201	174.004	3.498	-5.716	-2.218						1.228	131.420	33.791	-44.754	-10.963						1.216	132.618	9.864	-19.290	-9.426						1.215	131.404	11.708	-23.049	-11.340						1.226	128.735	12.928	-23.777	-10.849						1.227	128.622	12.892	-23.182	-10.290			
2.258	125.578	173.025	-179.382	-6.36						2.140	127.244	159.878	-169.923	-10.045						2.289	125.468	166.331	-185.790	-19.459						1.201	174.14	3.149	-5.632	-2.483						1.228	131.369	33.896	-45.027	-11.131						1.216	132.628	9.940	-19.191	-9.251						1.215	131.462	11.575	-22.745	-11.170						1.226	128.774	12.902	-23.589	-10.688						1.228	128.656	12.832	-22.984	-10.153			
2.289	125.361	174.971	-181.956	-6.99						2.163	127.052	161.574	-172.261	-10.687						2.313	125.278	167.832	-187.831	-19.998						1.2	174.256	2.846	-5.568	-2.721						1.228	131.322	34.000	-45.293	-11.292						1.216	132.618	10.101	-19.170	-9.070						1.215	131.517	11.450	-22.450	-11.000						1.226	128.811	12.883	-23.407	-10.525						1.234	128.637	13.071	-23.070	-9.999			
2.319	125.162	176.803	-184.389	-7.59						2.186	126.875	163.162	-174.482	-11.321						2.337	125.095	169.270	-189.790	-20.520						1.2	174.358	2.579	-5.513	-2.934						1.228	131.279	34.102	-45.549	-11.447						1.217	132.599	10.302	-19.181	-8.879						1.215	131.569	11.338	-22.169	-10.830						1.228	128.826	12.965	-23.322	-10.357						1.221	128.776	12.569	-22.432	-9.862			
2.349	124.98	178.543	-186.700	-8.16						2.208	126.709	164.654	-176.600	-11.946						2.359	124.919	170.652	-191.675	-21.023						1.199	174.448	2.323	-5.445	-3.122						1.228	131.241	34.202	-45.797	-11.594						1.217	132.565	10.568	-19.244	-8.676						1.215	131.62	11.229	-21.888	-10.659						1.225	128.883	12.884	-23.072	-10.188						1.232	128.688	12.895	-22.628	-9.733			
2.379	124.814	180.198	-188.895	-8.70						2.229	126.552	166.059	-178.623	-12.564						2.382	124.749	171.984	-193.491	-21.508						1.199	174.523	2.108	-5.398	-3.290						1.228	131.207	34.299	-46.034	-11.735						1.218	132.517	10.891	-19.349	-8.458						1.217	131.647	11.233	-21.716	-10.483						1.230	128.860	13.105	-23.118	-10.013						1.227	128.766	12.758	-22.353	-9.595			
2.409	124.663	181.776	-190.983	-9.21						2.250	126.404	167.382	-180.557	-13.175						2.403	124.584	173.272	-195.247	-21.975						1.199	174.593	1.931	-5.371	-3.439						1.228	131.178	34.392	-46.259	-11.867						1.218	132.455	11.280	-19.501	-8.221						1.214	131.732	10.977	-21.282	-10.305						1.224	128.940	13.032	-22.864	-9.832						1.229	128.742	12.925	-22.374	-9.449			
2.438	124.524	183.285	-192.970	-9.69						2.269	126.265	168.628	-182.408	-13.780						2.424	124.425	174.517	-196.941	-22.424						1.198	174.659	1.750	-5.320	-3.571						1.228	131.154	34.476	-46.467	-11.991						1.219	132.381	11.736	-19.696	-7.960						1.217	131.707	11.141	-21.279	-10.138						1.232	128.849	13.378	-23.021	-9.644						1.228	128.750	13.032	-22.329	-9.298			
2.467	124.397	184.731	-194.863	-10.13						2.288	126.135	169.808	-184.186	-14.378						2.444	124.270	175.732	-198.588	-22.856						1.198	174.714	1.567	-5.256	-3.689						1.228	131.135	34.568	-46.676	-12.108						1.22	132.295	12.263	-19.935	-7.673						1.216	131.748	11.092	-21.051	-9.960						1.226	128.927	13.414	-22.869	-9.455						1.231	128.702	13.256	-22.395	-9.139			
2.496	124.281	186.121	-196.668	-10.55						2.306	126.009	170.934	-185.903	-14.969						2.464	124.120	176.908	-200.178	-23.270						1.198	174.757	1.416	-5.209	-3.793						1.228	131.120	34.612	-46.826	-12.214						1.221	132.201	12.867	-20.221	-7.354						1.217	131.749	11.193	-20.969	-9.776						1.230	128.867	13.799	-23.050	-9.251						1.230	128.712	13.466	-22.439	-8.973			
2.525	124.173	187.460	-198.390	-10.93						2.324	125.887	172.013	-187.569	-15.555						2.484	123.970	178.073	-201.741	-23.667						1.198	174.798	1.314	-5.193	-3.879						1.228	131.106	34.629	-46.842	-12.213						1.222	132.098	13.562	-20.562	-6.999						1.217	131.753	11.299	-20.886	-9.587						1.230	128.848	14.142	-23.172	-9.031						1.232	128.649	13.836	-22.631	-8.795			
2.553	124.074	188.750	-200.033	-11.28						2.341	125.768	173.053	-189.190	-16.136						2.503	123.830	179.180	-203.228	-24.048						1.197	174.846	1.211	-5.164	-3.953																1.224	131.984	14.361	-20.969	-6.608						1.218	131.739	11.481	-20.872	-9.391						1.231	128.787	14.625	-23.417	-8.792						1.232	128.598	14.253	-22.856	-8.603			
2.581	123.983	189.996	-201.600	-11.60						2.357	125.648	174.066	-190.776	-16.710						2.522	123.683	180.322	-204.733	-24.411						1.197	174.871	1.122	-5.141	-4.019																1.225	131.856	15.280	-21.458	-6.178						1.218	131.716	11.717	-20.903	-9.185						1.232	128.721	15.176	-23.707	-8.531						1.234	128.518	14.777	-23.170	-8.393			
2.609	123.9	191.199	-203.094	-11.89						2.373	125.526	175.061	-192.337	-17.276						2.540	123.563	181.307	-206.064	-24.758						1.197	174.888	1.037	-5.115	-4.078																1.228	131.712	16.327	-22.040	-5.713						1.219	131.68	12.027	-20.995	-8.968						1.234	128.629	15.846	-24.088	-8.242						1.235	128.428	15.392	-23.554	-8.162			
2.637	123.823	192.361	-204.516	-12.15						2.389	125.401	176.044	-193.875	-17.832						2.558	123.421	182.400	-207.487	-25.088						1.197	174.899	0.961	-5.090	-4.129																1.23	131.544	17.510	-22.729	-5.219						1.22	131.632	12.410	-21.146	-8.737						1.235	128.521	16.626	-24.547	-7.921						1.237	128.318	16.123	-24.027	-7.905			
2.664	123.752	193.486	-205.871	-12.39						2.404	125.270	177.023	-195.401	-18.378						2.575	123.288	183.437	-208.838	-25.401						1.197	174.91	0.898	-5.071	-4.173																1.233	131.349	18.841	-23.547	-4.706						1.221	131.571	12.873	-21.360	-8.487						1.237	128.390	17.534	-25.100	-7.566						1.238	128.192	16.971	-24.590	-7.619			
2.691	123.687	194.572	-207.160	-12.59						2.419	125.134	178.002	-196.918	-18.916						2.593	123.161	184.450	-210.147	-25.697						1.197	174.918	0.852	-5.063	-4.210																1.237	131.123	20.327	-24.515	-4.188						1.222	131.497	13.422	-21.637	-8.215						1.240	128.238	18.566	-25.739	-7.173						1.241	128.047	17.944	-25.246	-7.302			
2.717	123.628	195.622	-208.385	-12.76						2.434	124.994	178.989	-198.432	-19.443						2.610	123.036	185.447	-211.425	-25.977						1.197	174.916	0.820	-5.062	-4.243																1.241	130.862	21.966	-25.647	-3.681						1.223	131.409	14.067	-21.985	-7.918						1.242	128.059	19.731	-26.474	-6.743						1.243	127.883	19.044	-25.997	-6.953			
2.743	123.575	196.635	-209.548	-12.91						2.448	124.848	179.987	-199.944	-19.957						2.627	122.914	186.426	-212.668	-26.241						1.197	174.909	0.798	-5.069	-4.271																1.246	130.564	23.773	-26.976	-3.203						1.225	131.306	14.821	-22.414	-7.593						1.245	127.853	21.034	-27.314	-6.281						1.246	127.694	20.281	-26.856	-6.575			
2.769	123.529	197.612	-210.650	-13.04						2.463	124.694	181.007	-201.463	-20.456						2.644	122.797	187.384	-213.873	-26.489						1.197	174.894	0.785	-5.080	-4.296																1.252	130.23	25.760	-28.533	-2.773						1.226	131.184	15.700	-22.937	-7.237						1.249	127.617	22.483	-28.274	-5.790						1.250	127.480	21.662	-27.837	-6.175			
2.794	123.488	198.555	-211.694	-13.14						2.477	124.529	182.059	-202.994	-20.936						2.660	122.683	188.319	-215.040	-26.721						1.197	174.873	0.778	-5.095	-4.317																1.258	129.858	27.936	-30.345	-2.408						1.229	131.042	16.713	-23.562	-6.849						1.253	127.349	24.077	-29.358	-5.281						1.254	127.238	23.184	-28.945	-5.761			
2.819	123.459	199.365	-212.586	-13.22						2.492	124.352	183.149	-204.544	-21.395						2.677	122.572	189.238	-216.175	-26.937						1.197	174.848	0.779	-5.114	-4.335																1.266	129.452	30.292	-32.420	-2.128						1.231	130.875	17.866	-24.300	-6.434						1.258	127.049	25.822	-30.587	-4.764						1.259	126.967	24.854	-30.197	-5.343			
2.843	123.427	200.255	-213.537	-13.28						2.507	124.165	184.273	-206.105	-21.833						2.693	122.463	190.149	-217.287	-27.138						1.197	174.821	0.782	-5.134	-4.352																1.275	129.016	32.844	-34.793	-1.948						1.235	130.679	19.171	-25.170	-5.999						1.264	126.716	27.727	-31.983	-4.256						1.264	126.666	26.677	-31.615	-4.939			
2.867	123.408	201.069	-214.394	-13.32						2.523	123.968	185.429	-207.677	-22.247						2.709	122.357	191.048	-218.372	-27.324						1.197	174.795	0.781	-5.148	-4.367																1.286	128.533	35.691	-37.576	-1.885						1.238	130.451	20.638	-26.193	-5.555						1.270	126.351	29.817	-33.590	-3.773						1.270	126.334	28.676	-33.239	-4.564			
2.884	123.399	201.631	-214.995	-13.36						2.539	123.762	186.615	-209.253	-22.637						2.725	122.256	191.926	-219.421	-27.495						1.197	174.795	0.781	-5.148	-4.367																1.297	128.024	38.791	-40.743	-1.952						1.243	130.188	22.264	-27.378	-5.114						1.278	125.956	32.073	-35.405	-3.332						1.277	125.972	30.853	-35.089	-4.236			
2.89	123.384	201.895	-215.332	-13.44						2.555	123.549	187.822	-210.825	-23.003						2.741	122.160	192.778	-220.429	-27.651																										1.311	127.472	42.218	-44.373	-2.156						1.248	129.888	24.062	-28.755	-4.694						1.287	125.530	34.513	-37.467	-2.953						1.286	125.582	33.192	-37.168	-3.975			
2.892	123.33	202.205	-215.778	-13.57						2.572	123.335	189.040	-212.383	-23.343						2.756	122.069	193.604	-221.399	-27.795																										1.327	126.898	46.013	-48.509	-2.496						1.253	129.551	26.042	-30.353	-4.311						1.297	125.077	37.145	-39.804	-2.659						1.296	125.162	35.740	-39.544	-3.804			
2.891	123.263	202.468	-216.233	-13.76						2.589	123.122	190.256	-213.915	-23.659						2.770	121.981	194.409	-222.338	-27.929																										1.346	126.294	50.296	-53.251	-2.955						1.26	129.177	28.224	-32.208	-3.984						1.310	124.592	40.052	-42.523	-2.471						1.308	124.714	38.567	-42.310	-3.743			
2.889	123.175	202.803	-216.814	-14.01						2.606	122.916	191.457	-215.410	-23.953						2.783	121.895	195.184	-223.246	-28.061																										1.367	125.662	55.142	-58.636	-3.494						1.268	128.769	30.589	-34.318	-3.728						1.326	124.083	43.323	-45.730	-2.406						1.322	124.246	41.656	-45.466	-3.810			
2.885	123.073	203.164	-217.475	-14.31						2.624	122.721	192.629	-216.854	-24.225						2.794	121.808	195.919	-224.129	-28.210																										1.389	125.004	60.591	-64.648	-4.057						1.277	128.32	33.188	-36.752	-3.564						1.342	123.554	46.888	-49.361	-2.473						1.337	123.754	45.066	-49.081	-4.015			
2.88	122.955	203.585	-218.242	-14.66						2.643	122.540	193.765	-218.242	-24.477						2.800	121.720	196.584	-224.976	-28.392																										1.413	124.322	66.568	-71.155	-4.587						1.289	127.831	36.077	-39.582	-3.505						1.361	123.002	50.900	-53.560	-2.660						1.356	123.241	48.912	-53.265	-4.353			
2.874	122.826	204.021	-219.070	-15.05						2.661	122.372	194.864	-219.573	-24.709						2.803	121.622	197.154	-225.777	-28.622																										1.438	123.637	72.818	-77.869	-5.051						1.301	127.319	39.230	-42.798	-3.568						1.384	122.429	55.496	-58.432	-2.936						1.376	122.709	53.299	-58.092	-4.793			
2.867	122.685	204.496	-219.973	-15.48						2.680	122.217	195.928	-220.850	-24.922						2.803	121.501	197.807	-226.719	-28.912																										1.464	122.973	78.972	-84.418	-5.446						1.314	126.776	42.698	-46.458	-3.761						1.407	121.841	60.627	-63.873	-3.246						1.399	122.160	58.264	-63.544	-5.280			
2.858	122.542	204.950	-220.886	-15.94						2.699	122.074	196.957	-222.074	-25.117						2.801	121.355	198.532	-227.780	-29.249																										1.492	122.361	84.666	-90.455	-5.789						1.331	126.201	46.560	-50.643	-4.083						1.431	121.261	66.069	-69.612	-3.542						1.422	121.605	63.708	-69.463	-5.755			
2.849	122.392	205.442	-221.863	-16.42						2.717	121.942	197.954	-223.248	-25.294						2.797	121.194	199.345	-228.970	-29.625																										1.52	121.81	89.802	-95.901	-6.099						1.35	125.597	50.928	-55.445	-4.517						1.455	120.723	71.308	-75.115	-3.807						1.445	121.069	69.358	-75.539	-6.182			
2.837	122.249	205.844	-222.770	-16.93						2.736	121.819	198.919	-224.373	-25.454						2.791	121.056	199.957	-229.998	-30.041																										1.548	121.337	94.511	-100.900	-6.389						1.371	124.966	55.882	-60.905	-5.023						1.479	120.278	75.896	-79.942	-4.046						1.469	120.579	74.682	-81.237	-6.554			
2.825	122.097	206.383	-223.826	-17.44						2.754	121.704	199.850	-225.450	-25.600						2.784	120.888	200.738	-231.232	-30.494																										1.578	120.879	99.044	-105.711	-6.667						1.394	124.311	61.447	-66.994	-5.547						1.501	119.926	79.710	-83.975	-4.265						1.492	120.154	79.302	-86.189	-6.887			
2.81	121.969	206.675	-224.647	-17.97						2.772	121.597	200.737	-226.472	-25.735						2.775	120.691	201.706	-232.672	-30.967																										1.609	120.559	103.235	-110.173	-6.939						1.418	123.638	67.512	-73.547	-6.035						1.523	119.557	83.210	-87.681	-4.471						1.514	119.777	83.256	-90.450	-7.194			
2.795	121.827	207.183	-225.682	-18.50						2.787	121.494	201.574	-227.447	-25.873						2.763	120.567	202.167	-233.612	-31.445																										1.61	120.512	103.299	-110.246	-6.947						1.443	122.973	73.764	-80.223	-6.460						1.548	119.326	86.587	-91.256	-4.669						1.538	119.462	86.886	-94.368	-7.482			
2.777	121.729	207.323	-226.342	-19.02						2.799	121.406	202.291	-228.320	-26.029						2.752	120.388	203.055	-235.011	-31.956																										1.616	120.068	106.264	-113.086	-6.823						1.469	122.343	79.791	-86.616	-6.825						1.571	118.943	90.095	-94.964	-4.869						1.560	119.105	90.368	-98.122	-7.753			
2.759	121.635	207.554	-227.082	-19.53						2.806	121.306	202.929	-229.161	-26.232						2.738	120.230	203.823	-236.272	-32.449																										1.644	119.845	109.525	-116.740	-7.215						1.496	121.772	85.246	-92.396	-7.150						1.596	118.717	93.363	-98.430	-5.067						1.587	118.942	93.604	-101.603	-7.999			
2.742	121.52	208.086	-228.082	-20.00						2.808	121.213	203.487	-229.965	-26.478						2.723	120.094	204.483	-237.412	-32.929																										1.678	119.551	113.233	-120.812	-7.579						1.524	121.269	90.114	-97.567	-7.453						1.621	118.384	96.920	-102.186	-5.266						1.610	118.495	97.124	-105.382	-8.258			
2.718	121.5	207.800	-228.263	-20.46						2.810	121.082	204.152	-230.935	-26.783						2.706	119.977	205.099	-238.484	-33.386																										1.716	119.212	117.888	-125.827	-7.940						1.552	120.811	94.604	-102.349	-7.745						1.645	118.180	99.866	-105.331	-5.465						1.636	118.358	100.331	-108.866	-8.535			
2.698	121.441	208.165	-229.068	-20.90						2.809	120.934	204.900	-232.021	-27.122						2.687	119.886	205.614	-239.425	-33.811																										1.754	118.849	122.767	-131.075	-8.307						1.58	120.405	98.920	-106.952	-8.032						1.671	117.848	103.506	-109.176	-5.670						1.661	118.074	103.732	-112.530	-8.798			
2.673	121.451	207.853	-229.158	-21.30						2.805	120.799	205.445	-232.951	-27.506						2.668	119.825	206.031	-240.226	-34.195																										1.792	118.522	127.233	-135.918	-8.685						1.61	119.981	103.190	-111.507	-8.317						1.697	117.661	106.365	-112.246	-5.881						1.686	117.818	107.102	-116.154	-9.052			
2.65	121.436	208.029	-229.697	-21.67						2.801	120.647	206.137	-234.057	-27.921						2.648	119.796	206.301	-240.830	-34.529																										1.829	118.209	131.503	-140.575	-9.072						1.641	119.703	107.136	-115.736	-8.600						1.724	117.362	109.882	-115.980	-6.097						1.711	117.655	109.753	-119.058	-9.306			
2.623	121.532	207.597	-229.571	-21.97						2.795	120.486	206.847	-235.211	-28.365						2.626	119.805	206.464	-241.269	-34.804																										1.865	117.918	135.484	-144.955	-9.471						1.641	119.647	107.207	-115.818	-8.611						1.751	117.116	113.133	-119.453	-6.319						1.738	117.368	113.427	-122.986	-9.559			
2.597	121.61	207.380	-229.600	-22.22						2.788	120.321	207.570	-236.400	-28.830						2.605	119.861	206.372	-241.390	-35.018																										1.901	117.643	139.228	-149.111	-9.882						1.642	119.485	108.543	-117.034	-8.491						1.775	117.027	115.121	-121.652	-6.531						1.762	117.244	115.872	-125.691	-9.819			
2.57	121.735	207.029	-229.438	-22.41						2.779	120.155	208.293	-237.603	-29.310						2.608	119.857	206.624	-241.637	-35.014																										1.936	117.386	142.700	-153.006	-10.305						1.679	119.097	113.397	-122.335	-8.938						1.805	116.625	119.305	-126.063	-6.758						1.788	117.052	118.747	-128.827	-10.080			
2.545	121.878	206.652	-229.195	-22.54						2.769	119.992	208.989	-238.783	-29.794																																				1.971	117.14	145.948	-156.690	-10.742						1.717	118.73	117.776	-127.159	-9.382						1.828	116.686	120.513	-127.498	-6.985						1.815	116.854	121.788	-132.130	-10.343			
2.526	122.005	206.320	-228.955	-22.64						2.758	119.836	209.658	-239.934	-30.276																																				2.004	116.897	148.920	-160.114	-11.194						1.758	118.334	122.750	-132.582	-9.832						1.856	116.331	124.329	-131.606	-7.276						1.839	116.769	123.759	-134.368	-10.609			
2.515	122.08	206.122	-228.828	-22.71						2.745	119.689	210.283	-241.031	-30.748																																				2.036	116.658	151.759	-163.424	-11.665						1.8	117.927	127.878	-138.171	-10.293						1.881	116.239	126.567	-134.112	-7.546						1.866	116.572	126.860	-137.746	-10.886			
2.509	122.109	206.033	-228.799	-22.77						2.731	119.554	210.861	-242.062	-31.202																																				2.067	116.425	154.340	-166.502	-12.162						1.841	117.58	132.420	-143.187	-10.767						1.907	116.050	129.350	-137.176	-7.826						1.890	116.519	128.706	-139.876	-11.170			
2.506	122.117	205.998	-228.812	-22.81						2.716	119.440	211.342	-242.971	-31.629																																				2.095	116.19	156.771	-169.466	-12.696						1.882	117.245	136.824	-148.077	-11.253						1.933	115.995	131.444	-139.567	-8.123						1.917	116.393	131.487	-142.958	-11.471			
2.504	122.116	205.989	-228.840	-22.85						2.699	119.346	211.787	-243.811	-32.024																																				2.122	115.953	159.062	-172.342	-13.280						1.921	116.952	140.742	-152.493	-11.751						1.959	115.887	133.928	-142.372	-8.444						1.942	116.318	133.741	-145.526	-11.785			
2.503	122.11	206.011	-228.888	-22.88						2.682	119.283	211.981	-244.356	-32.375																																				2.146	115.718	161.232	-175.164	-13.932						1.961	116.664	144.544	-156.805	-12.261						1.983	115.825	136.116	-144.906	-8.790						1.966	116.273	135.858	-147.978	-12.119			
2.501	122.2	205.604	-228.477	-22.87						2.684	119.285	212.217	-244.585	-32.369																																				2.168	115.486	163.303	-177.964	-14.661						1.998	116.416	147.786	-160.568	-12.781						2.006	115.795	138.171	-147.339	-9.168						1.989	116.253	137.868	-150.349	-12.481			
																																																		2.188	115.26	165.324	-180.795	-15.471						2.036	116.143	151.139	-164.454	-13.315						2.028	115.791	140.147	-149.730	-9.583						2.010	116.258	139.781	-152.658	-12.877			
																																																		2.207	115.042	167.332	-183.687	-16.356						2.07	115.893	153.828	-167.701	-13.873						2.048	115.810	142.049	-152.092	-10.043						2.031	116.284	141.610	-154.925	-13.315			
																																																		2.225	114.835	169.323	-186.633	-17.311						2.103	115.63	156.505	-170.975	-14.470						2.068	115.848	143.886	-154.438	-10.553						2.050	116.328	143.382	-157.183	-13.802			
																																																		2.24	114.647	171.176	-189.510	-18.334						2.132	115.369	158.904	-174.035	-15.131						2.086	115.901	145.675	-156.792	-11.117						2.069	116.386	145.126	-159.466	-14.341			
																																																		2.256	114.468	173.095	-192.494	-19.399						2.158	115.105	161.195	-177.073	-15.878						2.104	115.965	147.446	-159.183	-11.737						2.087	116.454	146.855	-161.787	-14.932			
																																																		2.271	114.306	175.002	-195.497	-20.495						2.181	114.842	163.442	-180.169	-16.727						2.121	116.036	149.219	-161.630	-12.411						2.104	116.530	148.567	-164.143	-15.576			
																																																		2.286	114.16	176.855	-198.458	-21.603						2.203	114.589	165.615	-183.302	-17.687						2.137	116.112	150.989	-164.127	-13.138						2.120	116.609	150.258	-166.529	-16.271			
																																																		2.3	114.032	178.636	-201.347	-22.710						2.222	114.35	167.731	-186.480	-18.748						2.152	116.190	152.743	-166.657	-13.913						2.136	116.691	151.936	-168.950	-17.014			
																																																		2.314	113.923	180.366	-204.166	-23.799						2.24	114.127	169.874	-189.770	-19.895						2.167	116.268	154.474	-169.206	-14.732						2.151	116.771	153.608	-171.409	-17.801			
																																																		2.328	113.832	182.036	-206.890	-24.854						2.258	113.923	171.992	-193.100	-21.109						2.182	116.344	156.182	-171.770	-15.588						2.166	116.848	155.277	-173.902	-18.625			
																																																		2.342	113.76	183.617	-209.479	-25.862						2.274	113.742	174.075	-196.438	-22.363						2.196	116.415	157.874	-174.344	-16.470						2.180	116.922	156.934	-176.412	-19.478			
																																																		2.356	113.708	185.089	-211.902	-26.813						2.288	113.589	175.948	-199.583	-23.634						2.210	116.480	159.551	-176.922	-17.371						2.195	116.989	158.565	-178.918	-20.352			
																																																		2.369	113.675	186.458	-214.154	-27.695						2.303	113.455	177.914	-202.798	-24.884						2.224	116.537	161.206	-179.490	-18.284						2.208	117.048	160.158	-181.400	-21.242			
																																																		2.382	113.665	187.667	-216.169	-28.502						2.318	113.347	179.820	-205.927	-26.107						2.237	116.584	162.821	-182.024	-19.203						2.222	117.098	161.712	-183.850	-22.138			
																																																		2.395	113.668	188.848	-218.068	-29.220						2.333	113.268	181.598	-208.867	-27.269						2.251	116.620	164.387	-184.506	-20.119						2.235	117.137	163.231	-186.263	-23.032			
																																																		2.408	113.689	189.908	-219.764	-29.856						2.348	113.215	183.298	-211.653	-28.355						2.264	116.642	165.900	-186.921	-21.021						2.249	117.163	164.717	-188.630	-23.913			
																																																		2.422	113.725	190.871	-221.276	-30.406						2.363	113.189	184.841	-214.192	-29.351						2.277	116.649	167.366	-189.267	-21.901						2.262	117.175	166.143	-190.921	-24.777			
																																																		2.434	113.772	191.750	-222.620	-30.871						2.377	113.189	186.265	-216.507	-30.242						2.289	116.639	168.759	-191.513	-22.753						2.275	117.171	167.522	-193.140	-25.618			
																																																		2.447	113.825	192.526	-223.782	-31.256						2.392	113.214	187.529	-218.551	-31.022						2.302	116.610	170.112	-193.686	-23.573						2.287	117.151	168.792	-195.221	-26.429			
																																																		2.458	113.878	193.220	-224.790	-31.570						2.407	113.263	188.709	-220.398	-31.689						2.314	116.563	171.310	-195.665	-24.355						2.300	117.107	170.103	-197.306	-27.203			
																																																		2.469	113.922	193.828	-225.648	-31.821						2.42	113.34	189.557	-221.809	-32.253						2.327	116.485	172.678	-197.768	-25.090						2.312	117.055	171.013	-198.941	-27.928			
																																																		2.479	113.95	194.390	-226.406	-32.016						2.433	113.433	190.413	-223.117	-32.704						2.337	116.414	173.198	-198.942	-25.744						2.324	116.965	172.217	-200.834	-28.617			
																																																		2.487	113.95	194.829	-226.995	-32.166						2.445	113.537	191.137	-224.202	-33.066						2.350	116.280	174.493	-200.910	-26.417						2.336	116.857	173.222	-202.471	-29.249			
																																																		2.493	113.954	195.241	-227.525	-32.284						2.454	113.636	191.667	-225.033	-33.366						2.362	116.123	175.579	-202.580	-27.001						2.348	116.722	174.144	-203.975	-29.831			
																																																		2.498	113.912	195.534	-227.911	-32.377						2.462	113.722	192.069	-225.684	-33.615						2.374	115.944	176.388	-203.922	-27.534						2.360	116.560	174.984	-205.344	-30.361			
																																																		2.502	113.865	195.716	-228.172	-32.456						2.467	113.778	192.374	-226.202	-33.828						2.386	115.734	177.192	-205.207	-28.014						2.371	116.370	175.751	-206.587	-30.836			
																																																		2.504	113.831	195.813	-228.341	-32.528						2.471	113.81	192.616	-226.631	-34.015						2.397	115.496	177.896	-206.338	-28.442						2.383	116.154	176.436	-207.694	-31.258			
																																																		2.506	113.808	195.856	-228.450	-32.595						2.474	113.811	192.810	-226.993	-34.183						2.408	115.232	178.560	-207.380	-28.820						2.394	115.913	177.040	-208.670	-31.630			
																																																		2.507	113.802	195.858	-228.517	-32.659						2.477	113.805	192.974	-227.308	-34.334						2.419	114.946	179.144	-208.296	-29.152						2.404	115.653	177.569	-209.524	-31.955			
																																																		2.508	113.802	195.838	-228.559	-32.721						2.479	113.78	193.115	-227.587	-34.472						2.429	114.647	179.690	-209.133	-29.443						2.414	115.376	178.041	-210.278	-32.237			
																																																		2.509	113.814	195.796	-228.579	-32.783						2.481	113.748	193.236	-227.834	-34.598						2.438	114.344	180.160	-209.857	-29.697						2.423	115.091	178.460	-210.940	-32.480			
																																																		2.51	113.82	195.753	-228.596	-32.843						2.483	113.72	193.364	-228.082	-34.718						2.447	114.045	180.630	-210.549	-29.919						2.431	114.806	178.834	-211.523	-32.688			
																																																		2.511	113.852	195.684	-228.585	-32.901						2.485	113.696	193.458	-228.286	-34.828						2.455	113.767	181.000	-211.114	-30.114						2.439	114.534	179.150	-212.017	-32.867			
																																																		2.512	113.87	195.645	-228.604	-32.959						2.486	113.677	193.531	-228.463	-34.932						2.462	113.502	181.461	-211.746	-30.285						2.445	114.280	179.441	-212.464	-33.022			
																																																		2.513	113.886	195.587	-228.601	-33.014						2.488	113.663	193.593	-228.622	-35.030						2.468	113.285	181.723	-212.164	-30.441						2.450	114.062	179.628	-212.786	-33.157			
																																																		2.515	113.899	195.530	-228.598	-33.068						2.49	113.654	193.646	-228.768	-35.122						2.474	113.084	182.105	-212.689	-30.584						2.455	113.853	179.917	-213.192	-33.275			
																																																		2.516	113.911	195.474	-228.595	-33.121						2.491	113.648	193.691	-228.901	-35.210						2.478	112.952	182.287	-212.998	-30.712						2.454	113.873	179.738	-213.013	-33.275			
																																																		2.518	113.921	195.422	-228.593	-33.171						2.493	113.645	193.732	-229.026	-35.294						2.482	112.826	182.667	-213.512	-30.845													
																																																		2.52	113.93	195.374	-228.594	-33.220						2.495	113.647	193.769	-229.142	-35.373						2.485	112.736	182.859	-213.831	-30.971													
																																																		2.522	113.936	195.331	-228.597	-33.267						2.498	113.648	193.807	-229.255	-35.448						2.488	112.671	182.990	-214.076	-31.086													
																																																		2.525	113.944	195.292	-228.603	-33.311						2.5	113.66	193.832	-229.351	-35.519						2.491	112.608	183.323	-214.528	-31.205													
																																																		2.527	113.942	195.257	-228.611	-33.354						2.502	113.681	193.877	-229.462	-35.585						2.492	112.580	183.381	-214.704	-31.323													
																																																		2.53	113.967	195.229	-228.624	-33.395						2.505	113.698	193.905	-229.552	-35.647						2.494	112.550	183.637	-215.074	-31.437													
																																																		2.534	113.966	195.210	-228.643	-33.434						2.508	113.71	193.934	-229.639	-35.705						2.496	112.535	183.730	-215.279	-31.549													
																																																		2.537	113.973	195.184	-228.655	-33.471						2.512	113.726	193.962	-229.721	-35.760						2.497	112.531	183.965	-215.618	-31.653													
																																																		2.54	113.976	195.168	-228.674	-33.506						2.515	113.739	193.996	-229.807	-35.811						2.497	112.534	183.936	-215.592	-31.656													
																																																		2.544	113.977	195.154	-228.693	-33.540						2.519	113.754	194.031	-229.889	-35.859																							
																																																		2.548	113.978	195.150	-228.722	-33.572						2.523	113.765	194.076	-229.979	-35.904																							
																																																		2.552	113.977	195.148	-228.750	-33.601						2.528	113.783	194.112	-230.057	-35.946																							
																																																		2.557	113.978	195.159	-228.788	-33.629						2.533	113.786	194.181	-230.165	-35.984																							
																																																		2.562	113.986	195.163	-228.816	-33.654						2.538	113.832	194.167	-230.185	-36.018																							
																																																		2.566	113.968	195.171	-228.847	-33.675						2.544	113.853	194.277	-230.329	-36.052																							
																																																												2.55	113.873	194.335	-230.417	-36.082																							
																																																												2.556	113.885	194.404	-230.515	-36.112																							
																																																												2.563	113.905	194.477	-230.616	-36.139																							
																																																												2.57	113.92	194.563	-230.727	-36.164																							
																																																												2.578	113.943	194.644	-230.830	-36.186																							
																																																																																							